run temperature(K) sigma pressure(psi) sigma thickness(H/cm2) sigma
1059       19.84      0.14       464.107    5.231      1.806e+18  2.402e+16 
1062       19.59      0.08       465.632    4.642      1.835e+18  1.977e+16 
1071       20.33      0.33       485.218    6.217      1.843e+18  3.811e+16 
1072       19.51      0.02       485.879    1.91       1.923e+18  7.812e+15 
1075       19.42      0.02       485.33     1.705      1.929e+18  7.062e+15 
1076       19.43      0.02       485.334    1.647      1.928e+18  6.837e+15 
1077       19.39      0.02       480.883    2.503      1.915e+18  1.016e+16 
1079       19.41      0.03       481.179    2.497      1.914e+18  1.036e+16 
1080       32.84      0.18       2.193      0.035      5.155e+15  8.699e+13 
1081       19.5       0.07       481.083    2.311      1.905e+18  1.142e+16 
1082       19.47      0.01       481.152    2.193      1.908e+18  8.751e+15 
1083       19.47      0.02       480.932    2.414      1.907e+18  9.770e+15 
1084       32.74      0.04       2.183      0.04       5.147e+15  9.452e+13 
1085       19.72      0.12       467.323    4.764      1.829e+18  2.171e+16 
1086       19.56      0.11       473.832    7.183      1.870e+18  3.024e+16 
1087       19.46      0.03       479.564    3.277      1.902e+18  1.332e+16 
1088       32.82      0.12       2.184      0.039      5.137e+15  9.364e+13 
1091       143.36     6.98       -1.332     0.047      0          0.000e+00 
1092       19.67      0.11       469.88     5.724      1.844e+18  2.472e+16 
1093       19.59      0.04       468.563    4.703      1.847e+18  1.892e+16 
1094       19.59      0.03       468.136    4.008      1.845e+18  1.605e+16 
1096       19.59      0.04       468.57     4.485      1.847e+18  1.808e+16 
1099       19.59      0.03       468.62     4.511      1.847e+18  1.800e+16 
1100       19.59      0.04       469.061    4.904      1.848e+18  1.969e+16 
1101       19.59      0.03       468.582    4.527      1.847e+18  1.807e+16 
1103       33.82      4.71       2.198      0.043      5.017e+15  7.056e+14 
1104       19.58      0.14       473.046    4.182      1.865e+18  2.121e+16 
1105       19.52      0.03       473.17     4.386      1.871e+18  1.758e+16 
1106       19.52      0.02       473.124    4.311      1.871e+18  1.716e+16 
1123       21.15      2.12       2.599      0.063      9.487e+15  9.784e+14 
1125       62.46      5.83       -1.331     0.047      0          0.000e+00 
1126       21.02      1.41       2.605      0.056      9.567e+15  6.739e+14 
1127       107.05     14.37      -1.342     0.05       0          0.000e+00 
1129       141.51     3.43       -1.339     0.049      0          0.000e+00 
1135       32.8       0.02       2.188      0.04       5.150e+15  9.420e+13 
1136       19.86      0.06       469.152    2.183      1.824e+18  1.012e+16 
1137       19.84      0.04       469.231    2.068      1.826e+18  8.850e+15 
1147       83.21      0.24       -1.336     0.049      0          0.000e+00 
1153       151.9      0.11       -1.337     0.048      0          0.000e+00 
1154       36.16      11.33      2.17       0.066      4.633e+15  1.458e+15 
1155       19.83      0.08       469.3      1.667      1.827e+18  9.821e+15 
1158       19.81      0.04       469.505    1.407      1.830e+18  6.613e+15 
1159       19.81      0.04       469.733    1.352      1.831e+18  6.438e+15 
1160       19.82      0.04       470.041    1.478      1.831e+18  6.841e+15 
1161       32.63      0.08       2.183      0.106      5.165e+15  2.511e+14 
1163       118.95     12.58      -1.331     0.047      0          0.000e+00 
1198       33.73      2.89       3.458      0.056      7.915e+15  6.902e+14 
1201       19.68      0.02       462.09     3.909      1.813e+18  1.545e+16 
1202       19.66      0.01       462.216    4.07       1.815e+18  1.601e+16 
1203       19.66      0.01       461.93     3.739      1.814e+18  1.471e+16 
1205       19.66      0.01       461.991    3.863      1.814e+18  1.520e+16 
1206       19.66      0.01       461.918    3.93       1.814e+18  1.546e+16 
1207       19.66      0.01       461.874    3.877      1.814e+18  1.525e+16 
1237       38.76      18.98      3.444      0.084      6.860e+15  3.363e+15 
1238       19.82      0.18       463.714    4.682      1.806e+18  2.453e+16 
1240       19.66      0.01       461.441    3.919      1.812e+18  1.542e+16 
1241       19.66      0.01       461.664    3.973      1.813e+18  1.563e+16 
1242       19.66      0.01       461.704    3.871      1.813e+18  1.523e+16 
1243       19.67      0.01       461.673    3.854      1.812e+18  1.515e+16 
1287       19.38      0.08       478.453    2.477      1.906e+18  1.262e+16 
1288       19.35      0.02       478.421    2.237      1.909e+18  9.142e+15 
1289       32.5       0.08       3.455      0.05       8.207e+15  1.205e+14 
1290       19.4       0.11       479.21     2.786      1.907e+18  1.549e+16 
1291       19.35      0.01       479.007    2.493      1.911e+18  9.995e+15 
1292       19.43      0.06       475.912    4.231      1.891e+18  1.780e+16 
1293       19.48      0.02       473.81     3.84       1.878e+18  1.534e+16 
1294       32.46      0.11       3.455      0.05       8.217e+15  1.221e+14 
1295       19.53      0.09       473.214    3.53       1.871e+18  1.641e+16 
1296       19.5       0.02       472.973    3.388      1.872e+18  1.355e+16 
1302       19.5       0.02       472.368    3.251      1.870e+18  1.301e+16 
1303       19.5       0.02       472.431    3.149      1.870e+18  1.261e+16 
1304       19.51      0.02       472.38     3.05       1.869e+18  1.222e+16 
1306       37.81      0.0        3.461      0.049      7.067e+15  1.001e+14 
1307       19.55      0.03       472.233    3.299      1.865e+18  1.334e+16 
1308       19.52      0.02       471.706    3.288      1.866e+18  1.315e+16 
1309       19.53      0.02       471.214    3.365      1.863e+18  1.344e+16 
1310       19.53      0.02       471.073    3.306      1.862e+18  1.321e+16 
1311       19.53      0.02       471.168    3.347      1.862e+18  1.336e+16 
1312       32.44      0.12       3.448      0.05       8.205e+15  1.228e+14 
1313       19.56      0.06       471.579    3.543      1.861e+18  1.510e+16 
1314       19.54      0.02       471.13     3.513      1.861e+18  1.401e+16 
1315       19.53      0.02       470.834    3.544      1.861e+18  1.414e+16 
1316       19.53      0.02       471.144    3.637      1.862e+18  1.450e+16 
1317       32.42      0.21       3.43       0.046      8.168e+15  1.216e+14 
1319       19.63      0.2        472.83     5.466      1.860e+18  2.866e+16 
1320       19.52      0.02       471.766    3.815      1.866e+18  1.521e+16 
1322       19.52      0.02       471.74     3.789      1.866e+18  1.511e+16 
1323       19.52      0.02       471.601    3.705      1.865e+18  1.478e+16 
1324       32.43      0.1        3.451      0.05       8.215e+15  1.217e+14 
1325       19.53      0.02       471.806    3.791      1.865e+18  1.511e+16 
1326       32.45      0.1        3.444      0.05       8.193e+15  1.216e+14 
1327       32.53      0.01       3.453      0.05       8.195e+15  1.187e+14 
1328       19.57      0.11       471.91     3.749      1.862e+18  1.812e+16 
1329       32.41      0.24       3.441      0.049      8.196e+15  1.315e+14 
1330       32.53      0.02       3.435      0.155      8.152e+15  3.679e+14 
1331       19.54      0.06       471.795    3.743      1.864e+18  1.586e+16 
1332       19.52      0.02       471.666    3.759      1.865e+18  1.499e+16 
1334       19.52      0.02       471.71     3.845      1.866e+18  1.533e+16 
1336       19.52      0.02       471.45     3.644      1.865e+18  1.454e+16 
1337       19.52      0.02       471.341    3.665      1.864e+18  1.462e+16 
1338       19.51      0.02       471.284    3.642      1.865e+18  1.454e+16 
1339       32.46      0.07       3.433      0.047      8.165e+15  1.132e+14 
1340       19.54      0.08       471.553    3.847      1.863e+18  1.701e+16 
1341       19.51      0.02       471.169    3.734      1.864e+18  1.490e+16 
1342       60.53      4.4        -0.043     0.05       0          0.000e+00 
1345       93.52      4.28       -0.059     0.05       0          0.000e+00 
1362       19.75      0.29       472.435    6.425      1.847e+18  3.697e+16 
1369       34.19      3.37       3.502      0.061      7.907e+15  7.914e+14 
1370       19.86      0.2        480.547    4.409      1.868e+18  2.545e+16 
1371       19.74      0.04       481.235    3.314      1.882e+18  1.351e+16 
1372       19.7       0.04       481.567    2.535      1.887e+18  1.065e+16 
1373       19.68      0.03       478.642    2.845      1.878e+18  1.152e+16 
1374       19.66      0.02       478.134    1.506      1.878e+18  6.216e+15 
1381       32.39      0.01       3.468      0.047      8.266e+15  1.121e+14 
1382       19.83      0.05       479.398    2.073      1.866e+18  9.340e+15 
1383       19.81      0.01       478.689    2.041      1.865e+18  8.007e+15 
1384       19.79      0.02       478.789    2.102      1.868e+18  8.415e+15 
1385       19.78      0.02       478.845    1.894      1.869e+18  7.630e+15 
1387       32.35      0.01       3.469      0.046      8.278e+15  1.098e+14 
1394       19.76      0.05       473.609    3.398      1.850e+18  1.407e+16 
1395       19.73      0.04       472.899    3.244      1.850e+18  1.323e+16 
1396       19.73      0.04       472.806    3.031      1.850e+18  1.244e+16 
1397       19.73      0.04       472.997    3.253      1.851e+18  1.327e+16 
1399       32.37      0.0        3.453      0.05       8.235e+15  1.192e+14 
1400       19.37      0.09       472.948    2.826      1.885e+18  1.427e+16 
1401       19.34      0.02       472.326    2.273      1.885e+18  9.278e+15 
1404       19.55      0.05       468.58     2.221      1.850e+18  9.964e+15 
1405       19.48      0.03       467.76     2.07       1.854e+18  8.687e+15 
1406       32.17      0.18       3.436      0.048      8.246e+15  1.241e+14 
1411       32.33      0.0        3.454      0.05       8.248e+15  1.194e+14 
1412       19.59      0.07       463.684    4.424      1.827e+18  1.861e+16 
1413       19.55      0.01       463.301    3.563      1.830e+18  1.410e+16 
1415       19.55      0.01       463.443    3.477      1.830e+18  1.376e+16 
1416       19.55      0.01       463.772    3.546      1.831e+18  1.403e+16 
1417       130.99     16.65      -0.052     0.05       0          0.000e+00 
1418       32.44      0.05       3.502      0.042      8.334e+15  1.008e+14 
1420       19.55      0.09       472.119    2.36       1.864e+18  1.267e+16 
1421       19.51      0.02       471.675    2.149      1.866e+18  8.714e+15 
1422       19.51      0.02       471.619    2.1        1.866e+18  8.526e+15 
1423       19.51      0.02       471.48     2.039      1.866e+18  8.293e+15 
1424       19.51      0.02       471.646    2.105      1.866e+18  8.545e+15 
1425       32.17      0.19       3.457      0.053      8.296e+15  1.363e+14 
1426       19.53      0.07       471.541    2.427      1.864e+18  1.169e+16 
1427       19.5       0.02       471.172    2.094      1.865e+18  8.506e+15 
1429       19.51      0.02       471.387    2.024      1.865e+18  8.233e+15 
1430       19.51      0.02       471.477    2.048      1.866e+18  8.328e+15 
1431       32.21      0.09       3.472      0.046      8.322e+15  1.127e+14 
1443       19.56      0.02       469.508    2.218      1.853e+18  8.956e+15 
1444       19.56      0.02       469.526    2.242      1.853e+18  9.049e+15 
1445       19.56      0.02       469.6      2.261      1.853e+18  9.121e+15 
1446       19.56      0.02       469.223    2.326      1.852e+18  9.374e+15 
1448       32.18      0.1        3.463      0.048      8.308e+15  1.180e+14 
1449       19.45      0.08       473.529    2.047      1.880e+18  1.122e+16 
1451       19.42      0.02       473.151    1.639      1.881e+18  6.798e+15 
1452       19.42      0.02       473.456    1.635      1.882e+18  6.782e+15 
1453       19.42      0.02       473.478    1.625      1.882e+18  6.744e+15 
1454       32.07      0.21       3.457      0.051      8.322e+15  1.343e+14 
1455       19.45      0.06       473.848    1.945      1.881e+18  9.658e+15 
1456       19.42      0.02       473.597    1.646      1.883e+18  6.826e+15 
1457       19.42      0.01       473.277    1.676      1.881e+18  6.731e+15 
1458       19.41      0.01       473.047    1.676      1.881e+18  6.734e+15 
1459       32.11      0.12       3.442      0.05       8.275e+15  1.241e+14 
1460       19.44      0.08       473.346    1.956      1.880e+18  1.096e+16 
1461       19.41      0.01       472.922    1.668      1.881e+18  6.705e+15 
1462       19.41      0.02       472.83     1.605      1.881e+18  6.673e+15 
1463       19.41      0.01       473.008    1.717      1.881e+18  6.896e+15 
1465       32.15      0.01       3.447      0.05       8.277e+15  1.201e+14 
1466       19.44      0.06       473.131    1.996      1.879e+18  9.822e+15 
1467       19.41      0.01       472.801    1.636      1.880e+18  6.577e+15 
1468       19.41      0.02       472.854    1.681      1.881e+18  6.962e+15 
1469       32.3       0.04       3.476      0.051      8.308e+15  1.223e+14 
1470       19.45      0.07       472.637    2.104      1.876e+18  1.074e+16 
1471       19.42      0.02       472.171    1.696      1.877e+18  7.014e+15 
1472       19.42      0.02       472.12     1.659      1.877e+18  6.873e+15 
1473       32.26      0.05       3.45       0.172      8.256e+15  4.118e+14 
1474       19.45      0.07       472.675    2.029      1.876e+18  1.051e+16 
1475       19.45      0.02       472.907    1.305      1.877e+18  5.528e+15 
1476       19.45      0.02       472.872    1.332      1.877e+18  5.628e+15 
1477       32.13      0.16       3.444      0.05       8.275e+15  1.270e+14 
1478       19.48      0.07       473.345    1.816      1.876e+18  9.861e+15 
1479       19.45      0.02       472.89     1.322      1.877e+18  5.591e+15 
1480       19.45      0.02       472.902    1.354      1.877e+18  5.710e+15 
1481       32.15      0.16       3.444      0.05       8.270e+15  1.269e+14 
1482       19.48      0.03       473.431    1.292      1.876e+18  5.879e+15 
1484       19.46      0.02       473.485    1.285      1.878e+18  5.450e+15 
1485       19.45      0.02       473.096    1.33       1.878e+18  5.622e+15 
1486       32.09      0.24       3.433      0.048      8.259e+15  1.310e+14 
1487       19.47      0.05       473.046    1.61       1.876e+18  7.999e+15 
1488       19.45      0.02       472.692    1.316      1.876e+18  5.568e+15 
1489       19.45      0.02       472.703    1.347      1.876e+18  5.683e+15 
1490       32.13      0.07       3.432      0.046      8.246e+15  1.120e+14 
1491       19.49      0.08       473.312    1.903      1.875e+18  1.077e+16 
1492       19.44      0.02       472.896    1.328      1.878e+18  5.617e+15 
1495       19.44      0.02       472.977    1.312      1.878e+18  5.556e+15 
1496       31.98      0.27       3.423      0.042      8.263e+15  1.231e+14 
1498       72.46      6.25       -0.047     0.05       0          0.000e+00 
1501       86.98      1.08       -0.047     0.05       0          0.000e+00 
1506       19.5       0.05       472.343    1.643      1.870e+18  8.081e+15 
1507       19.48      0.02       471.731    1.199      1.869e+18  5.123e+15 
1508       19.47      0.02       471.813    1.195      1.871e+18  5.114e+15 
1509       32.06      0.16       3.435      0.048      8.271e+15  1.227e+14 
1510       19.51      0.06       472.42     1.493      1.869e+18  8.242e+15 
1511       19.48      0.02       472.044    1.201      1.871e+18  5.133e+15 
1512       19.48      0.02       472.083    1.189      1.871e+18  5.089e+15 
1513       19.48      0.02       472.128    1.221      1.871e+18  5.206e+15 
1514       32.01      0.19       3.432      0.047      8.277e+15  1.235e+14 
1515       32.18      0.12       3.413      0.25       8.188e+15  6.005e+14 
1516       19.52      0.08       472.43     1.749      1.868e+18  1.032e+16 
